

                 Berthold Technologies
                        LB 2045
                  Gamma Spectrometer

                      Laboratory


Sample Name       : standard rice        Meas. Time [s]    :  10755
Dead Time Loss [%]: 0.0112
Spillover Factor  :    0.0
High Voltage [V]  :  833.6              Program Version   :   2.21
Fill Volume [%]   :  100.0
Bkg MeasTime [s]  :   3600

                            24h        Unit      Cs-137        Unit
-------------------------------------------------------------------
Accuracy          :         0.0           %         0.0           %
Calibration Factor:       1.000     cps/cps       88.00   Bq/Kg/cps
Background        :       6.989         cps      0.3047         cps
Region of Interest:    0 - 2048         keV  620 -  700         keV

05. Oct 2012 / 15:25:31

Nuclide   Raw Data [cps]    Result   Uncertainty         MDA      Unit
----------------------------------------------------------------------
24h            17.57         10.59       0.05979      0.1682       cps
Cs-137         2.149         162.2         1.483       3.085     Bq/Kg


Energy Range [keV]  :   2048
COMMENT : standard_rice-121005
COMMENT2 : å∫ïƒîFèÿïWèÄï®éø121005
Weight [Kg] : 0.377000
BASE DATE : 2012/10/05 13:14:38
BASE TIME (sec) : 10801
Meas. Time [s]      :  10755
05. Oct 2012/15:25:31

Spectrum Values [cps]:
    0.0;
    0.0;
    0.0;
    0.0;
0.00028;
    0.0;
    0.0;
    0.0;
    0.0;
    0.0;
    0.0;
    0.0;
    0.0;
    0.0;
    0.0;
    0.0;
    0.0;
    0.0;
    0.0;
    0.0;
    0.0;
    0.0;
0.00549;
0.01385;
0.01990;
0.02836;
0.03449;
0.03849;
0.03533;
0.03970;
0.03933;
0.04769;
0.04835;
0.04955;
0.05318;
0.05671;
0.05755;
0.05662;
0.05439;
0.05950;
0.07168;
0.08888;
0.09771;
 0.1041;
 0.1079;
0.09325;
0.08144;
0.07177;
0.06703;
0.06406;
0.07010;
0.06276;
0.05736;
0.05355;
0.04760;
0.04890;
0.04453;
0.04463;
0.04574;
0.04491;
0.04491;
0.04388;
0.04788;
0.04928;
0.04779;
0.04686;
0.05039;
0.05216;
0.04742;
0.05318;
0.04946;
0.04881;
0.05364;
0.05532;
0.05420;
0.05392;
0.05541;
0.05234;
0.05095;
0.05327;
0.05848;
0.05643;
0.05439;
0.05606;
0.05699;
0.05532;
0.05653;
0.05671;
0.05272;
0.05132;
0.05058;
0.05606;
0.05262;
0.05430;
0.05151;
0.05560;
0.05504;
0.05597;
0.06052;
0.06015;
0.05922;
0.06369;
0.06108;
0.06080;
0.06638;
0.06982;
0.06926;
0.07075;
0.07475;
0.07243;
0.07196;
0.07280;
0.07224;
0.07531;
0.07205;
0.07503;
0.07298;
0.07122;
0.06908;
0.07298;
0.06499;
0.06778;
0.06555;
0.06954;
0.06592;
0.06201;
0.06378;
0.06359;
0.06257;
0.06304;
0.06071;
0.05969;
0.06025;
0.05894;
0.05653;
0.05625;
0.05653;
0.05457;
0.05355;
0.05876;
0.05513;
0.05058;
0.05048;
0.04974;
0.05086;
0.04993;
0.04928;
0.04593;
0.04862;
0.04621;
0.04463;
0.04955;
0.04584;
0.05151;
0.04602;
0.04407;
0.04314;
0.04407;
0.04007;
0.04481;
0.04574;
0.04007;
0.04425;
0.04407;
0.04035;
0.04472;
0.04147;
0.04295;
0.04267;
0.03830;
0.04193;
0.03858;
0.03700;
0.04091;
0.03896;
0.03886;
0.03747;
0.03961;
0.03728;
0.03719;
0.03858;
0.03737;
0.03635;
0.04016;
0.03803;
0.04026;
0.03412;
0.03756;
0.03868;
0.03505;
0.03719;
0.03849;
0.03579;
0.03189;
0.03598;
0.03645;
0.03440;
0.03803;
0.03728;
0.03514;
0.03775;
0.03691;
0.03552;
0.03579;
0.03514;
0.03589;
0.03412;
0.03347;
0.03338;
0.03040;
0.03170;
0.03226;
0.03291;
0.03133;
0.03133;
0.03356;
0.03142;
0.03096;
0.03059;
0.03003;
0.02668;
0.03022;
0.03031;
0.02687;
0.03208;
0.02947;
0.02585;
0.02966;
0.02752;
0.02873;
0.03012;
0.02733;
0.02808;
0.02938;
0.02836;
0.02826;
0.02854;
0.03012;
0.03022;
0.02668;
0.02473;
0.02687;
0.02585;
0.02659;
0.02213;
0.02724;
0.02613;
0.02231;
0.02101;
0.02343;
0.02371;
0.01980;
0.02482;
0.02241;
0.02445;
0.02324;
0.02008;
0.02120;
0.02213;
0.01990;
0.01962;
0.01887;
0.01869;
0.02110;
0.02148;
0.02185;
0.01785;
0.02148;
0.02222;
0.01748;
0.01850;
0.01925;
0.01999;
0.02027;
0.02138;
0.01915;
0.02073;
0.02166;
0.01999;
0.01971;
0.01934;
0.01952;
0.01729;
0.01999;
0.02194;
0.02148;
0.02482;
0.02454;
0.02017;
0.02445;
0.02306;
0.02603;
0.02464;
0.02771;
0.02864;
0.02873;
0.03273;
0.03133;
0.02994;
0.03486;
0.03682;
0.03700;
0.03905;
0.03747;
0.04174;
0.04147;
0.04314;
0.04472;
0.04277;
0.05011;
0.04993;
0.05774;
0.05281;
0.05708;
0.05932;
0.05727;
0.05755;
0.05597;
0.05495;
0.05997;
0.05160;
0.05550;
0.04965;
0.04630;
0.04751;
0.04528;
0.03979;
0.04035;
0.03645;
0.04184;
0.03663;
0.04035;
0.04695;
0.04676;
0.04704;
0.04788;
0.05206;
0.05355;
0.05662;
0.05922;
0.06313;
0.06610;
0.06675;
0.06675;
0.06908;
0.06740;
0.06954;
0.06936;
0.05811;
0.06378;
0.05392;
0.05262;
0.05253;
0.04351;
0.04221;
0.03552;
0.03208;
0.02585;
0.02287;
0.02148;
0.01739;
0.01729;
0.01673;
0.01553;
0.01376;
0.01060;
0.00995;
0.01004;
0.00948;
0.00781;
0.00846;
0.00948;
0.00790;
0.00762;
0.00753;
0.00595;
0.00716;
0.00744;
0.00800;
0.00725;
0.00827;
0.00930;
0.00679;
0.00734;
0.00874;
0.00660;
0.00902;
0.00958;
0.00893;
0.01088;
0.01190;
0.01069;
0.01264;
0.01209;
0.01543;
0.01367;
0.01534;
0.01701;
0.01859;
0.02073;
0.02306;
0.02854;
0.02492;
0.02622;
0.02919;
0.03022;
0.02891;
0.03161;
0.03384;
0.03273;
0.03245;
0.03384;
0.03096;
0.03040;
0.03022;
0.02882;
0.03124;
0.02566;
0.02538;
0.02315;
0.02101;
0.02083;
0.01952;
0.01859;
0.01636;
0.01450;
0.01367;
0.01404;
0.00986;
0.01078;
0.00976;
0.00790;
0.00865;
0.00725;
0.00567;
0.00707;
0.00660;
0.00744;
0.00567;
0.00762;
0.00669;
0.00511;
0.00474;
0.00632;
0.00632;
0.00586;
0.00604;
0.00586;
0.00586;
0.00614;
0.00697;
0.00530;
0.00576;
0.00707;
0.00539;
0.00595;
0.00474;
0.00632;
0.00595;
0.00660;
0.00567;
0.00576;
0.00530;
0.00567;
0.00651;
0.00549;
0.00530;
0.00642;
0.00539;
0.00595;
0.00586;
0.00549;
0.00372;
0.00483;
0.00511;
0.00623;
0.00549;
0.00576;
0.00363;
0.00437;
0.00353;
0.00511;
0.00483;
0.00539;
0.00539;
0.00418;
0.00363;
0.00604;
0.00428;
0.00474;
0.00409;
0.00549;
0.00623;
0.00390;
0.00493;
0.00549;
0.00493;
0.00446;
0.00446;
0.00465;
0.00539;
0.00307;
0.00521;
0.00428;
0.00567;
0.00502;
0.00474;
0.00511;
0.00409;
0.00623;
0.00446;
0.00428;
0.00428;
0.00549;
0.00511;
0.00400;
0.00530;
0.00428;
0.00549;
0.00493;
0.00456;
0.00437;
0.00474;
0.00428;
0.00418;
0.00456;
0.00483;
0.00418;
0.00390;
0.00456;
0.00493;
0.00353;
0.00456;
0.00465;
0.00502;
0.00446;
0.00446;
0.00474;
0.00446;
0.00474;
0.00390;
0.00390;
0.00353;
0.00372;
0.00446;
0.00400;
0.00437;
0.00418;
0.00372;
0.00344;
0.00363;
0.00418;
0.00428;
0.00372;
0.00298;
0.00539;
0.00353;
0.00390;
0.00344;
0.00335;
0.00437;
0.00390;
0.00558;
0.00400;
0.00307;
0.00493;
0.00409;
0.00474;
0.00456;
0.00381;
0.00363;
0.00446;
0.00428;
0.00372;
0.00279;
0.00400;
0.00428;
0.00428;
0.00418;
0.00465;
0.00381;
0.00372;
0.00409;
0.00428;
0.00456;
0.00409;
0.00316;
0.00409;
0.00298;
0.00390;
0.00372;
0.00456;
0.00298;
0.00372;
0.00549;
0.00325;
0.00474;
0.00418;
0.00428;
0.00316;
0.00483;
0.00353;
0.00474;
0.00363;
0.00390;
0.00390;
0.00372;
0.00316;
0.00363;
0.00307;
0.00223;
0.00298;
0.00232;
0.00316;
0.00316;
0.00223;
0.00335;
0.00353;
0.00400;
0.00400;
0.00325;
0.00325;
0.00288;
0.00307;
0.00307;
0.00242;
0.00270;
0.00344;
0.00279;
0.00232;
0.00307;
0.00325;
0.00270;
0.00279;
0.00195;
0.00232;
0.00186;
0.00205;
0.00186;
0.00223;
0.00270;
0.00242;
0.00242;
0.00298;
0.00298;
0.00242;
0.00186;
0.00251;
0.00214;
0.00139;
0.00158;
0.00167;
0.00158;
0.00242;
0.00214;
0.00223;
0.00121;
0.00214;
0.00158;
0.00214;
0.00121;
0.00130;
0.00130;
0.00177;
0.00195;
0.00139;
0.00139;
0.00186;
0.00149;
0.00130;
0.00149;
0.00130;
0.00195;
0.00149;
0.00149;
0.00084;
0.00121;
0.00121;
0.00195;
0.00149;
0.00130;
0.00158;
0.00167;
0.00139;
0.00121;
0.00130;
0.00139;
0.00186;
0.00242;
0.00167;
0.00186;
0.00177;
0.00270;
0.00195;
0.00149;
0.00223;
0.00177;
0.00130;
0.00186;
0.00214;
0.00242;
0.00214;
0.00186;
0.00242;
0.00242;
0.00205;
0.00186;
0.00270;
0.00260;
0.00325;
0.00307;
0.00335;
0.00307;
0.00335;
0.00260;
0.00298;
0.00307;
0.00335;
0.00353;
0.00335;
0.00493;
0.00307;
0.00418;
0.00390;
0.00381;
0.00651;
0.00558;
0.00418;
0.00549;
0.00456;
0.00465;
0.00558;
0.00558;
0.00753;
0.00586;
0.00558;
0.00734;
0.00679;
0.00604;
0.00660;
0.00734;
0.00837;
0.00688;
0.00623;
0.00642;
0.00716;
0.00660;
0.00521;
0.00614;
0.00623;
0.00539;
0.00549;
0.00576;
0.00576;
0.00502;
0.00483;
0.00437;
0.00335;
0.00493;
0.00363;
0.00335;
0.00381;
0.00298;
0.00232;
0.00270;
0.00279;
0.00381;
0.00177;
0.00195;
0.00149;
0.00102;
0.00167;
0.00121;
0.00242;
0.00112;
0.00205;
0.00130;
0.00112;
0.00065;
0.00046;
0.00102;
0.00121;
0.00102;
0.00112;
0.00046;
0.00074;
0.00084;
0.00046;
0.00084;
0.00074;
0.00102;
0.00074;
0.00102;
0.00093;
0.00084;
0.00046;
0.00056;
0.00084;
0.00074;
0.00093;
0.00074;
0.00065;
0.00065;
0.00074;
0.00065;
0.00093;
0.00084;
0.00084;
0.00065;
0.00056;
0.00093;
0.00065;
0.00065;
0.00056;
0.00084;
0.00102;
0.00102;
0.00056;
0.00028;
0.00093;
0.00065;
0.00037;
0.00056;
0.00084;
0.00065;
0.00093;
0.00046;
0.00028;
0.00065;
0.00019;
0.00028;
0.00028;
0.00074;
0.00028;
0.00065;
0.00019;
0.00056;
0.00065;
0.00056;
0.00037;
0.00009;
0.00056;
0.00102;
0.00046;
0.00065;
0.00009;
0.00037;
0.00093;
0.00056;
0.00037;
0.00065;
0.00037;
0.00028;
0.00056;
0.00037;
0.00046;
0.00009;
0.00028;
0.00074;
0.00074;
0.00037;
0.00065;
0.00065;
0.00056;
0.00028;
0.00065;
0.00074;
0.00121;
0.00037;
0.00074;
0.00065;
0.00046;
0.00037;
0.00046;
0.00065;
0.00056;
0.00074;
0.00056;
0.00046;
0.00084;
0.00037;
0.00084;
0.00074;
0.00046;
0.00028;
0.00074;
0.00046;
0.00056;
0.00093;
0.00084;
0.00056;
0.00056;
0.00065;
0.00046;
0.00056;
0.00084;
0.00046;
0.00028;
0.00046;
0.00074;
0.00046;
0.00019;
0.00037;
0.00056;
0.00028;
0.00019;
0.00074;
0.00019;
0.00056;
0.00037;
0.00037;
0.00102;
0.00037;
0.00037;
0.00046;
0.00019;
0.00028;
0.00019;
0.00056;
0.00019;
0.00046;
0.00037;
0.00028;
0.00019;
0.00037;
0.00074;
0.00019;
0.00037;
0.00019;
0.00037;
0.00019;
0.00046;
0.00046;
0.00056;
0.00065;
0.00019;
0.00037;
0.00019;
0.00028;
0.00009;
0.00046;
0.00056;
0.00056;
0.00009;
0.00037;
0.00074;
0.00037;
0.00028;
0.00019;
0.00046;
0.00046;
0.00009;
0.00028;
0.00019;
0.00046;
0.00037;
0.00019;
0.00028;
0.00037;
0.00102;
    0.0;
0.00028;
0.00028;
0.00028;
0.00019;
0.00037;
0.00037;
0.00046;
0.00037;
0.00019;
0.00037;
0.00046;
0.00009;
0.00019;
0.00019;
0.00046;
0.00009;
    0.0;
0.00028;
0.00009;
0.00009;
0.00065;
0.00009;
    0.0;
0.00009;
0.00028;
0.00019;
0.00046;
0.00037;
0.00019;
0.00028;
0.00019;
0.00019;
0.00074;
0.00009;
0.00019;
0.00019;
0.00028;
0.00056;
0.00009;
0.00019;
    0.0;
0.00009;
0.00019;
0.00046;
0.00037;
0.00009;
0.00065;
0.00046;
0.00019;
0.00037;
0.00019;
0.00046;
0.00028;
0.00019;
0.00028;
0.00046;
0.00037;
0.00009;
0.00037;
0.00093;
0.00009;
0.00019;
0.00019;
Base Values     :
0.000000;
0.000000;
0.000000;
0.000000;
0.000090;
0.000000;
0.000000;
0.000000;
0.000000;
0.000000;
0.000000;
0.000000;
0.000000;
0.000000;
0.000000;
0.000000;
0.000000;
0.000000;
0.000000;
0.000000;
0.000000;
0.000090;
0.002870;
0.007310;
0.010650;
0.013790;
0.016020;
0.018700;
0.018150;
0.018240;
0.016940;
0.018700;
0.022030;
0.020180;
0.023890;
0.022780;
0.024720;
0.022500;
0.022220;
0.026110;
0.030460;
0.033890;
0.040830;
0.044530;
0.042590;
0.040460;
0.035740;
0.028610;
0.030270;
0.029530;
0.032130;
0.028150;
0.025090;
0.026110;
0.019260;
0.023240;
0.021480;
0.018240;
0.021570;
0.020920;
0.019070;
0.019070;
0.020180;
0.018980;
0.020650;
0.021660;
0.020180;
0.020550;
0.019720;
0.021020;
0.021660;
0.022130;
0.023150;
0.021850;
0.022130;
0.021390;
0.021390;
0.020460;
0.022410;
0.021290;
0.019910;
0.021110;
0.023050;
0.022780;
0.021850;
0.021020;
0.022410;
0.020920;
0.022310;
0.022590;
0.022410;
0.023790;
0.021110;
0.020090;
0.020740;
0.024260;
0.021850;
0.021200;
0.022500;
0.023240;
0.021570;
0.019260;
0.023050;
0.024350;
0.021110;
0.021760;
0.021660;
0.020740;
0.023050;
0.021200;
0.022590;
0.021660;
0.020180;
0.019810;
0.021570;
0.022220;
0.020920;
0.018790;
0.018420;
0.018980;
0.021850;
0.020550;
0.017590;
0.020550;
0.021020;
0.020830;
0.020000;
0.018610;
0.021290;
0.021110;
0.021660;
0.021020;
0.017040;
0.021200;
0.019160;
0.019160;
0.020460;
0.019720;
0.019260;
0.020000;
0.018520;
0.018790;
0.016940;
0.017130;
0.017870;
0.018240;
0.015740;
0.017500;
0.016390;
0.018610;
0.019260;
0.017960;
0.017500;
0.015460;
0.016940;
0.016110;
0.016570;
0.015920;
0.016940;
0.015460;
0.015280;
0.016940;
0.016670;
0.015000;
0.017310;
0.015280;
0.014170;
0.014540;
0.014350;
0.014720;
0.013790;
0.014630;
0.013980;
0.012500;
0.014170;
0.014540;
0.014350;
0.012040;
0.013150;
0.014170;
0.012780;
0.014070;
0.014630;
0.013790;
0.011850;
0.012960;
0.014350;
0.015550;
0.014440;
0.013890;
0.015000;
0.013150;
0.014810;
0.013700;
0.013610;
0.012220;
0.011390;
0.013420;
0.013520;
0.013330;
0.011940;
0.013240;
0.014630;
0.012870;
0.011760;
0.009630;
0.011200;
0.010740;
0.010280;
0.010740;
0.011570;
0.012590;
0.011570;
0.012780;
0.009720;
0.011110;
0.010460;
0.009170;
0.011390;
0.010740;
0.010090;
0.012310;
0.011110;
0.010550;
0.010550;
0.009260;
0.010000;
0.010550;
0.010000;
0.011670;
0.011760;
0.010550;
0.011200;
0.011480;
0.009810;
0.012590;
0.010740;
0.010280;
0.010920;
0.010740;
0.010650;
0.010000;
0.010920;
0.010920;
0.010650;
0.010740;
0.007960;
0.010830;
0.010000;
0.008520;
0.010370;
0.008800;
0.009350;
0.009810;
0.009170;
0.011850;
0.009440;
0.010180;
0.008800;
0.011110;
0.009810;
0.011390;
0.010280;
0.010830;
0.011390;
0.010550;
0.010830;
0.010830;
0.009070;
0.010180;
0.011020;
0.011390;
0.012410;
0.011570;
0.010920;
0.009720;
0.007960;
0.011480;
0.008520;
0.009170;
0.008520;
0.009540;
0.008800;
0.008520;
0.009810;
0.010280;
0.008610;
0.007780;
0.008980;
0.009720;
0.007410;
0.008800;
0.006570;
0.007780;
0.008520;
0.007040;
0.008700;
0.008890;
0.008240;
0.008050;
0.007500;
0.007410;
0.007870;
0.007220;
0.006670;
0.008430;
0.007500;
0.007780;
0.009440;
0.007040;
0.009260;
0.008520;
0.008610;
0.007220;
0.008700;
0.008430;
0.007780;
0.007500;
0.007780;
0.006570;
0.007310;
0.007130;
0.006850;
0.007870;
0.007310;
0.007220;
0.006940;
0.006850;
0.005740;
0.006300;
0.006390;
0.007590;
0.008330;
0.006850;
0.007870;
0.007040;
0.007410;
0.007590;
0.006390;
0.007130;
0.006390;
0.005740;
0.005740;
0.007960;
0.006110;
0.005930;
0.007500;
0.006480;
0.005830;
0.006390;
0.007500;
0.008700;
0.007130;
0.006110;
0.005370;
0.005650;
0.006390;
0.006940;
0.006200;
0.005740;
0.006110;
0.007780;
0.006760;
0.005460;
0.005650;
0.006760;
0.006200;
0.005650;
0.007040;
0.005930;
0.005460;
0.007220;
0.005650;
0.005090;
0.007040;
0.006390;
0.006110;
0.004720;
0.005560;
0.006020;
0.005560;
0.005650;
0.004440;
0.007590;
0.006390;
0.005180;
0.006850;
0.006670;
0.004810;
0.006390;
0.005370;
0.006760;
0.006110;
0.005740;
0.005000;
0.004440;
0.004810;
0.005460;
0.005830;
0.005460;
0.006200;
0.004440;
0.004350;
0.005930;
0.005650;
0.005560;
0.004630;
0.005370;
0.005460;
0.005830;
0.006110;
0.004170;
0.005560;
0.006110;
0.004070;
0.005000;
0.006390;
0.005930;
0.004910;
0.004260;
0.005180;
0.004810;
0.004540;
0.004070;
0.004350;
0.004720;
0.004260;
0.005090;
0.006020;
0.004070;
0.006110;
0.004170;
0.005090;
0.004910;
0.005280;
0.005830;
0.003980;
0.005280;
0.003890;
0.004910;
0.004810;
0.004630;
0.004440;
0.005650;
0.005280;
0.003980;
0.003610;
0.004350;
0.004810;
0.005460;
0.005000;
0.004630;
0.005180;
0.003520;
0.004170;
0.005740;
0.004070;
0.004260;
0.004440;
0.004630;
0.004720;
0.004810;
0.004720;
0.003330;
0.005740;
0.003890;
0.004260;
0.004260;
0.004260;
0.004260;
0.004070;
0.004720;
0.004810;
0.004540;
0.004540;
0.003610;
0.003240;
0.003800;
0.004260;
0.004910;
0.004630;
0.003610;
0.004260;
0.005090;
0.005650;
0.004170;
0.004070;
0.004350;
0.003800;
0.004440;
0.003700;
0.002680;
0.003430;
0.004810;
0.003610;
0.003520;
0.003700;
0.003800;
0.004350;
0.003520;
0.005180;
0.004070;
0.003610;
0.004440;
0.003700;
0.003330;
0.003980;
0.003610;
0.003700;
0.002780;
0.003330;
0.004440;
0.003980;
0.003610;
0.004170;
0.003150;
0.002220;
0.003610;
0.003890;
0.002680;
0.003700;
0.003330;
0.003890;
0.002870;
0.003520;
0.003700;
0.002960;
0.003520;
0.003610;
0.002960;
0.003060;
0.004350;
0.004070;
0.003700;
0.004910;
0.003330;
0.003980;
0.003430;
0.002680;
0.001940;
0.002870;
0.003520;
0.003430;
0.003150;
0.002870;
0.003700;
0.003800;
0.001480;
0.002590;
0.003520;
0.004440;
0.003240;
0.002870;
0.003800;
0.003700;
0.003520;
0.002680;
0.004170;
0.003150;
0.004070;
0.003060;
0.003060;
0.003240;
0.003150;
0.003520;
0.002040;
0.003330;
0.003800;
0.002130;
0.003240;
0.003240;
0.004170;
0.003610;
0.003240;
0.002960;
0.003430;
0.003060;
0.003890;
0.003700;
0.003430;
0.003980;
0.003890;
0.003430;
0.002590;
0.003330;
0.003700;
0.003150;
0.002780;
0.002780;
0.003060;
0.003980;
0.002500;
0.003700;
0.002590;
0.002220;
0.003700;
0.003150;
0.003520;
0.002870;
0.002130;
0.003060;
0.003700;
0.002680;
0.003430;
0.002680;
0.002870;
0.002870;
0.003430;
0.001480;
0.002590;
0.002130;
0.002500;
0.003240;
0.002870;
0.002960;
0.002220;
0.002410;
0.002780;
0.002130;
0.003430;
0.002220;
0.002040;
0.002130;
0.002780;
0.002870;
0.003060;
0.002310;
0.002680;
0.001850;
0.002960;
0.002500;
0.002410;
0.002220;
0.002590;
0.002870;
0.002310;
0.002040;
0.002310;
0.001940;
0.002040;
0.001480;
0.001480;
0.001850;
0.002500;
0.002040;
0.002310;
0.001760;
0.001390;
0.001940;
0.002310;
0.001940;
0.001570;
0.002220;
0.001570;
0.001480;
0.001390;
0.001200;
0.001760;
0.001570;
0.002410;
0.000740;
0.000740;
0.001300;
0.001850;
0.000930;
0.001300;
0.001570;
0.000740;
0.001480;
0.001670;
0.001570;
0.001300;
0.001300;
0.001760;
0.001200;
0.001390;
0.001020;
0.001480;
0.000930;
0.001390;
0.000930;
0.001110;
0.001670;
0.001850;
0.001760;
0.001570;
0.001390;
0.001200;
0.002040;
0.001570;
0.001300;
0.001480;
0.001940;
0.001200;
0.001200;
0.001480;
0.001200;
0.001110;
0.001390;
0.001850;
0.002410;
0.001670;
0.001020;
0.001760;
0.001940;
0.001110;
0.001300;
0.001480;
0.002410;
0.001480;
0.001850;
0.002310;
0.002590;
0.001670;
0.001940;
0.001940;
0.003150;
0.002960;
0.003060;
0.003980;
0.003060;
0.003060;
0.002590;
0.003150;
0.002780;
0.003610;
0.005370;
0.004350;
0.004070;
0.005280;
0.004440;
0.005000;
0.005560;
0.004810;
0.003800;
0.006570;
0.005370;
0.004350;
0.005740;
0.005830;
0.004720;
0.006480;
0.006480;
0.005560;
0.005180;
0.006390;
0.003800;
0.005000;
0.004350;
0.005930;
0.004260;
0.005000;
0.005560;
0.004440;
0.003700;
0.004720;
0.003980;
0.003800;
0.002590;
0.002780;
0.003240;
0.002500;
0.002220;
0.001480;
0.001760;
0.001480;
0.001570;
0.002130;
0.002590;
0.002590;
0.001570;
0.001760;
0.001480;
0.000740;
0.001390;
0.001200;
0.001110;
0.001480;
0.001300;
0.000930;
0.000930;
0.000830;
0.000650;
0.001480;
0.001020;
0.000460;
0.000930;
0.000650;
0.000650;
0.000560;
0.000930;
0.000560;
0.001200;
0.000460;
0.000830;
0.000740;
0.001110;
0.000830;
0.000460;
0.001200;
0.001110;
0.000560;
0.000930;
0.000560;
0.000930;
0.000930;
0.000560;
0.001020;
0.000830;
0.000460;
0.000740;
0.000740;
0.000650;
0.000650;
0.000560;
0.001020;
0.000650;
0.000650;
0.000460;
0.000830;
0.000830;
0.000460;
0.000370;
0.000370;
0.000740;
0.000560;
0.000560;
0.000830;
0.001110;
0.001570;
0.000460;
0.000460;
0.000740;
0.000930;
0.000460;
0.000460;
0.000370;
0.000830;
0.001110;
0.000650;
0.000460;
0.000650;
0.000560;
0.000280;
0.000560;
0.000280;
0.000740;
0.000460;
0.000280;
0.000280;
0.000280;
0.000190;
0.000460;
0.000370;
0.000190;
0.000280;
0.000930;
0.000370;
0.000370;
0.000370;
0.000460;
0.000560;
0.000930;
0.000560;
0.000650;
0.000370;
0.000650;
0.000560;
0.000460;
0.000650;
0.000560;
0.000740;
0.000830;
0.000560;
0.000650;
0.000460;
0.000930;
0.000460;
0.000370;
0.000650;
0.000930;
0.000460;
0.000650;
0.000370;
0.000830;
0.000370;
0.000650;
0.000370;
0.000370;
0.000650;
0.000460;
0.000650;
0.000370;
0.001020;
0.000930;
0.001020;
0.000460;
0.000280;
0.000930;
0.000740;
0.000560;
0.000190;
0.000370;
0.000650;
0.000560;
0.000370;
0.000830;
0.000190;
0.000560;
0.000190;
0.000280;
0.000740;
0.000190;
0.000190;
0.001020;
0.000000;
0.000740;
0.000280;
0.000280;
0.000650;
0.000370;
0.000650;
0.000280;
0.000280;
0.000460;
0.000650;
0.000280;
0.000460;
0.000280;
0.000190;
0.000190;
0.000280;
0.000190;
0.000370;
0.000560;
0.000370;
0.000740;
0.000560;
0.000090;
0.000370;
0.000560;
0.000280;
0.000560;
0.000190;
0.000090;
0.000190;
0.000460;
0.000280;
0.000370;
0.000460;
0.000460;
0.000190;
0.000370;
0.000090;
0.000460;
0.000190;
0.000280;
0.000280;
0.001110;
0.000190;
0.000190;
0.000740;
0.000560;
0.000460;
0.000280;
0.000280;
0.000370;
0.000280;
0.000090;
0.001020;
0.000460;
0.000370;
0.000190;
0.000370;
0.000090;
0.000190;
0.000190;
0.000460;
0.000370;
0.000090;
0.000190;
0.000370;
0.000000;
0.000090;
0.000000;
0.000280;
0.000650;
0.000460;
0.000370;
0.000000;
0.000460;
0.000190;
0.000560;
0.000190;
0.000190;
0.000370;
0.000460;
0.000280;
0.000370;
0.000090;
0.000280;
0.000280;
0.000190;
0.000560;
0.000280;
0.000370;
0.000090;
0.000370;
0.000190;
0.000650;
0.000190;
0.000280;
0.000190;
0.000000;
0.000280;
0.000190;
0.000280;
0.000190;
0.000190;
0.000460;
0.000280;
0.000560;
0.000280;
0.000090;
END
